# R.A.[deg]    Dec.[deg]    flux[Jy]
   15.6360   -8.3548    2.2219
   10.9907  -13.4505    5.7881
   13.6684  -10.0708    0.6806
   15.1274  -13.2243    3.5794
    8.1473   -6.0978    4.6955
    7.9252  -16.7993    3.7251
    4.0193   -6.1325    5.6110
    9.6062   -7.7586    2.8640
   11.5995   -6.5211    4.2485
    6.6559  -12.6038    5.5722
   10.3241   -9.1129         0
    8.3962  -10.1847         0
    8.0574  -16.7988    1.7988
   13.5070   -7.8185    5.2396
   13.6735   -8.0083    5.6084
   15.1674  -13.3440    2.8066
    5.1177   -4.4199    8.9373
    9.3874  -17.9431    8.3990
   12.9479  -11.8495    4.4687
    4.1794  -11.7587   14.9766
   18.6703  -13.2117    3.9041
   11.0496  -12.9878    7.9502
    7.5474   -7.8263    4.8109
   14.6477  -13.9321         0
   11.6971   -9.6900   10.6395
   10.4916  -11.9130    1.8093
    6.9392  -10.5776    5.2212
    2.0557   -1.3044   10.7624
    5.6639  -12.4384    6.9282
    7.0947   -6.0152    6.1130
   12.0364   -9.8296    4.5637
   12.7652   -9.8583    5.7356
    6.4661  -18.5617   10.6705
   13.7268   -5.4065    3.6171
   13.0034   -9.3046    4.3354
    9.4352  -11.9531    3.6333
    5.7195   -9.8316    3.7639
   14.0142  -10.4905    4.4826
    9.4163   -1.7559    6.8566
    5.4393  -14.9808    5.2646
   11.1353  -12.5269    2.7178
   12.3561   -8.8174    9.9559
    3.4227   -1.6563    2.3913
   18.3988   -8.8420    4.0087
    0.3293   -4.9999    5.2403
    2.6414   -6.6132         0
   15.5081   -6.7647    1.9728
   11.4633   -4.2061    1.1190
    8.0699    0.3105         0
   10.0522   -9.3359   11.3990
   13.2909  -11.3051    2.8089
    6.0939   -9.1575    7.5202
   14.1767  -11.3643    5.0516
   13.1379  -20.4010    2.0176
    9.7968  -10.5218    4.8788
   10.8605   -9.2447    6.2142
    7.1706  -11.6483    1.5716
    6.1452  -10.9759    8.5943
    8.2508   -4.4369    8.5905
   14.6283   -9.6287    4.7079
    8.9213  -10.1345    6.8430
    7.9677  -12.9761    1.3442
    5.5933  -12.5076    6.7156
    4.8995  -10.4541    4.6151
   10.0995   -9.4243    9.8256
   14.6811   -8.2513    2.1288
   15.5417   -2.6414   11.0345
   12.5208   -3.8955    5.0603
    8.6093  -15.3874    6.3365
    8.3458   -2.0954    9.3486
   11.6454  -14.4347    8.3089
   14.2185    1.5705    2.3724
   14.3841   -9.1032    2.2543
    0.4648  -11.9743    2.2555
    9.7909  -19.0959    8.2243
    5.6495  -11.7909    4.5929
    7.8794   -3.0604    3.6659
   17.8085  -11.8570    5.2476
    6.5011  -12.0287    8.1073
    2.4229  -15.9085    4.5233
   10.7966  -15.2826    5.9278
    9.4399  -12.6041         0
    8.1300   -8.3799    2.9972
   13.9576  -19.2803    1.8002
   12.5476   -6.9969    3.0825
   11.6916  -12.1650    2.7141
    8.7537   -6.3805    3.7337
   11.5754  -10.0196    3.5260
    8.6891  -11.9921    6.9732
   10.8374   -7.7376    9.3082
   12.5947   -7.7268    0.3949
   11.5285   -0.8870   10.2585
    6.9723  -15.8554    8.8492
    7.5834  -13.1591    5.2809
    5.3193  -15.5055    9.7403
   14.4878  -12.5656    5.7344
    9.8828  -12.2743    1.9392
    7.0435  -11.9864    8.3835
   13.0499  -12.1102   11.6974
    7.7012  -12.2967    2.6773
   12.0070  -11.0671    1.9956
   16.8249   -8.0729    8.4150
   14.2199   -4.9883    4.9281
    9.2793  -11.6423    0.9085
    9.4877   -1.7766    8.7089
   18.7171   -6.0726    4.5378
    9.2314   -4.5115    2.6144
   11.3553  -14.4109    3.2553
   11.4669  -18.2268    3.5070
   14.1618   -8.5288    7.8123
   10.9688   -8.4505    1.5328
   11.6481  -17.6512    6.4077
   11.4497  -16.6864    8.0132
   22.1005   -8.4157    2.4205
   13.9423   -5.3360    6.0032
    6.0558   -3.8964    0.0396
    4.5215  -14.1322    7.0906
    2.7332   -7.2792    1.6334
   18.2804   -7.2359    7.4191
    6.3148  -10.1443    6.3007
   14.4646  -14.7334    3.7658
   12.4022  -14.9701    0.5604
    3.1297   -6.6677    8.9948
   19.1029  -17.5693    5.4581
   12.4853  -11.3272   10.0319
   18.1906   -9.3679    5.0257
   11.5419   -5.0816         0
   10.8080  -11.6162   10.0702
    5.4131  -16.2662    4.1258
   10.1692   -8.4338    7.7732
   10.6171  -13.2385    2.8333
    3.1553   -2.0013    6.8355
    9.9149  -13.9057    7.5050
   10.7346   -9.2305    8.0393
    6.7548   -0.8091    6.4971
   11.8477   -5.2565    4.8776
    4.5432  -10.0761    5.4334
    7.4181   -7.8438    5.9070
   10.4743    0.8124    2.7846
    7.2771   -3.6971    6.6513
   11.8981  -15.9778    1.8066
    8.3674   -9.1688         0
    6.0665   -5.2082    5.4997
   14.1922  -16.9068    5.5932
   12.7002   -8.7010    5.6622
   12.5711  -10.3067   10.3185
   13.0830   -8.7023    8.6986
   14.5424  -13.6228   10.5914
   14.4589  -18.2214    5.6611
   10.1516  -14.8259    7.7259
    7.9738   -1.5630    3.2265
    9.5020  -10.5838    4.3071
   15.5704  -14.2819         0
    4.6096   -3.3946    5.2095
    7.4602   -5.8646    7.7809
   14.6949  -13.8817    1.8255
   13.8070   -5.1627    4.3325
    7.7701   -5.0032    2.8278
    9.0693  -13.4819    2.5748
    9.2989   -7.5705    7.7072
    8.7607  -11.6683    5.2018
   -0.9946   -4.3714    7.2188
    8.0770  -15.6793    6.1903
   11.3908  -11.8384    7.8074
   21.0321   -6.3064         0
    3.4182  -10.3579    1.9336
    7.1401   -7.4062    4.4843
    8.2654   -2.1810    6.0437
    5.7598  -11.9186    8.4453
    6.9680  -14.9312    3.0811
    1.3409   -2.9697    3.1852
    9.4941  -11.9683    4.1445
    7.6667   -8.5677    7.0857
   12.4074  -12.6188    5.3193
   10.2583  -17.0596    8.3771
   14.7962  -14.2630    2.6842
   17.2933   -4.0949    6.2334
   10.5483  -11.8681    6.1616
    4.4288  -10.6758    0.0680
   11.0986   -8.6498    5.8892
   16.2922   -4.7043   10.2191
    9.5704   -9.3142    1.4066
   11.7443  -11.1632    3.0888
    5.6516  -13.8361    1.9497
   16.7913   -7.3773    8.3872
   11.8172  -19.3974    3.3305
    8.1004  -15.2874    7.2541
    2.4669   -6.6865    0.0657
    6.9057   -7.9891         0
    5.3777  -15.7458    7.9921
    7.7835   -7.5834    6.7799
   11.5606   -7.8874    5.8402
   13.7321  -15.3294    7.9012
   10.7003  -10.3230    5.2028
   10.3767   -2.7906    5.4197
   11.6858  -12.2208    2.3753
   21.9394  -16.0640    5.0285
   11.4972   -9.2856    1.6990
   10.6335  -12.5207    2.3279
   17.1003  -11.6142    3.5683
   10.4030   -8.1543    5.4162
    6.9716  -10.2467    9.8085
   14.1935  -11.7165    6.1326
    8.3895  -14.6428    6.2184
   10.9095  -13.6911    6.6298
   13.9431  -14.6058    8.6110
   13.6358  -12.7232    6.7413
    2.7850   -2.0776    5.1910
   -0.6292   -9.3356    3.7009
    6.8423  -12.4721    6.7917
   17.4336  -10.5754         0
   11.0578   -8.8960    5.1252
    9.3171   -8.7577    7.8297
    9.2985   -8.5658    4.3161
   14.6717   -5.0926    6.7305
   11.4872  -11.5475    5.5173
   12.1411   -8.4020    6.7551
    0.5927  -12.7838    3.5196
    9.2168  -18.3653   10.0138
   10.0863  -12.5737    6.1898
    6.1299   -3.6191    5.4230
    9.8967  -11.5957    1.4282
    7.2896   -5.4015    4.4206
   13.9146   -7.2918    0.6632
    7.4313  -12.6876    4.1342
   15.8711   -1.3899    1.3126
    9.8081   -6.0696    4.8081
   14.0299   -5.9384    5.4566
   20.2819  -14.0934    3.5464
   10.3007  -12.9118    9.8987
   16.7257   -7.0910    9.1067
    5.1739   -4.6011    9.2417
   18.2051  -10.1187    6.7722
    4.5621   -2.2963    7.3400
    9.7057  -10.5751    3.0283
    8.5292   -6.7688    5.3954
    4.8288   -9.9848    1.6327
    4.1138   -5.0772    5.7195
   12.9087  -11.4719    8.4265
    3.7486  -10.1412    1.6974
    3.9669  -16.7874    4.3734
   15.0799   -8.6399    0.6018
   10.0076   -9.5962    6.8188
   11.7086   -7.6236    8.6925
    5.9440   -8.4781    8.4304
    9.1144  -13.0120    1.9230
   11.3812   -7.0118    2.8729
   10.7536    1.7457    4.6935
   18.0464  -12.8866    3.8146
    7.1916   -5.8047    3.4173
    9.3252  -12.5999         0
   13.7450  -14.0879    6.9100
   14.2664  -15.0527    4.2967
    1.1182   -7.4108    7.0801
    8.2365   -9.8504    5.7936
    6.9548   -6.0684         0
    9.9279  -10.8551    4.0961
   12.3183  -15.2891    7.3583
   12.0017  -10.8926    8.1355
   15.1340  -10.3320    4.0483
   12.0146   -7.2442    6.5615
   11.4195  -15.4469    5.7139
   14.2552  -18.2941    7.7656
   11.9290   -7.9352   10.8908
    4.0393  -13.4945    2.2657
   10.4942  -12.2085   11.2998
    2.5538   -7.5233    5.6434
   14.9980   -9.9175    2.6029
    0.5146   -9.2578    2.5690
    7.5257   -4.6706    5.3533
   10.4242   -5.2034    5.4141
    9.8280   -9.9838    6.2327
   18.4732  -12.3925    7.4810
   10.2496  -15.3720    6.0848
    7.2375   -8.5791    1.9265
   12.6416    0.4088    2.9295
    4.5698   -5.2881    2.7233
   12.4540   -8.9877    3.2286
   11.1292  -14.9405    6.0655
    8.2326  -15.5164    6.0221
    7.2008  -12.3851    4.3174
    4.6429  -26.8398    2.0035
    1.5469   -8.1218    4.0225
    8.0920   -4.4043    6.7911
   13.4976   -9.5024    4.6112
    6.7873  -11.4719    9.3210
   17.1309   -3.9120    2.5448
    6.0026  -11.9248    5.8825
   19.6337  -12.6072    8.4541
    6.8852   -5.8331    2.4192
   10.4468   -9.9752    4.8317
   16.4574  -12.8552    1.3558
   15.5503   -6.1375    2.2067
    6.5906  -12.1635    0.6581
   13.3236   -3.2963    2.1958
    4.9854  -12.8323    6.1029
    2.3236  -12.6728    4.2795
   12.9752  -12.8291    6.7491
    2.2166   -8.3969    8.0832
    0.3787   -4.1271    6.0877
    9.7298   -8.3545    7.3264
   16.2356   -6.5256    7.2649
   15.4802   -4.3510   12.0720
    3.2723  -10.5775    7.2716
   10.1678   -5.7312    0.5240
   13.6129  -10.5602    5.8873
   14.3823   -0.5503    7.0022
   17.0233   -8.8287    7.8280
   17.1381  -12.4547    7.4514
   13.8533   -9.5481    3.5243
    3.5898  -13.2981    5.0831
   10.1787  -16.8587    6.0356
    3.7904   -8.4260    5.6472
   15.5488   -8.9521   11.0870
   17.8393   -7.0570    0.1864
    0.9933  -13.8023    7.5670
   13.7597  -13.6230    8.5593
    8.4573  -12.2084    3.2282
    7.8492  -14.5257    6.4870
    5.9990    2.1111    4.7330
   15.6854   -8.3281    1.8997
   11.7244  -12.9391    5.3020
    9.4651   -8.0905   10.0044
   11.8776   -4.4671    3.8026
   14.5595   -6.9508    6.8826
    6.0872   -5.8751    1.6360
    6.4239   -7.8366    2.2350
   13.0983  -16.7822    1.2829
   17.1355  -13.4195    0.6959
   15.6258   -5.2307    2.1724
    9.4798  -10.8914    2.3011
    4.0070   -8.8336    3.6738
   -0.5426   -7.5028    0.0694
    5.8305  -14.5964    3.4794
   15.0831   -9.1445    2.6752
    7.5289  -11.9565    2.6188
   11.2768  -16.6337    4.0495
   10.9575   -8.2305    8.5153
    0.0876  -13.7984    4.9856
   15.6298  -12.2628    6.2631
   19.1112  -16.0265    9.7565
    9.8250  -12.7133    7.0538
   14.4936   -8.0221    5.3882
    6.5920   -2.9282    8.2581
   12.6827  -15.0920   11.6896
   19.5545   -8.4461    3.4491
   15.9028   -7.6448    7.5451
    6.8503   -5.3022    2.5580
    5.4117   -4.3306    1.2546
   10.2390  -14.9765    2.9678
    8.9334   -9.7238    4.7788
    9.7177   -4.4619         0
   15.7200   -7.5470    0.2042
   10.9951   -3.7001    4.8288
   17.4881   -4.5258    6.8017
    9.8067    0.5471    7.3564
    9.4004  -21.7901    6.3120
   13.5694  -11.4933    4.4606
   11.9182  -11.5239    6.5900
    9.0554  -16.4063   12.4786
    2.8533  -12.3456   10.9304
    4.9763   -3.6000    4.8219
   12.7758   -9.7332    9.2433
   12.4456   -5.6774    3.1382
    3.3945   -2.6429    6.0524
   10.5396  -11.3062    5.4333
   12.3821  -11.8433    7.2899
    4.7114  -15.9270    1.3552
    5.5080  -11.2478    6.8728
   15.3732  -13.2161    5.5059
    2.1084  -10.9868    5.9863
   12.0094  -11.0151    1.9142
   14.4013  -13.2776    3.8193
    1.9393  -15.1511    0.3676
    9.4141  -11.6996    2.7984
    4.7114   -9.9342    2.0903
   10.4048  -14.0305    3.9511
    8.1003   -8.4149    5.5077
    2.5708  -10.6486    7.5439
   12.7809  -11.1730    1.7928
   12.6827   -5.8972    5.8809
    7.2170    0.3778    8.2595
   12.3754   -6.1856    7.8839
    3.9506   -7.1079    0.2167
    4.4436   -9.9788    7.1961
    4.8095   -9.4160    4.4937
    9.5080   -7.3836    9.1442
    7.6411  -12.4884    7.7879
   18.6008  -16.7165    3.9535
    9.6800   -8.0690    5.8083
   12.5283  -13.1584    6.5326
   12.5833   -8.2283         0
   11.6728  -13.7374    3.1580
   10.8626  -15.6404    3.8137
   15.5984  -16.3154    1.5657
    4.7613   -8.7350         0
   17.3587   -1.2046    7.5201
   13.0885   -9.0980    3.1586
    4.8273   -7.7927    8.5165
   14.9957   -9.3529    2.1253
   15.3215   -8.9646    7.8594
   17.6830    0.6446    7.1103
    8.1086  -13.5157    6.6797
   17.3772  -10.7150    1.8860
   11.1856  -13.0317    4.4651
    3.4143   -6.7868    3.5902
    6.5072   -8.8516    2.1203
   14.1827  -11.4727    3.6649
   18.0683   -6.6605    0.1365
    4.6758  -14.5257    4.5278
    9.4997   -9.4626    4.4076
    7.0446   -9.0980    2.5059
   18.4588   -2.9177    6.9120
    5.9676   -7.5762    1.8542
   15.9918   -9.8512    4.2555
    7.1894  -16.0379    6.5747
   13.4951  -16.6191    5.6397
    4.0409   -7.3422         0
   16.7512  -13.1508    2.6827
    0.0869  -11.0854    3.7817
   11.4513  -13.9124    3.3400
   11.8945   -9.1828    0.9411
    6.3068   -8.9745    4.8707
    5.6509   -2.1488    4.4971
   12.7421   -1.8196    8.8388
    5.3370   -5.2227    5.3367
    9.8729   -5.1221    7.1164
   -2.6890  -15.2635    4.6088
    0.6353   -4.2590         0
    9.7986  -14.2371    0.5802
   15.0308  -17.1975    2.7458
    2.5772    4.2481    3.6988
   13.0540   -8.5660    6.7291
   12.2245  -12.9832    2.4966
    7.3519   -9.9643    3.1136
    9.8923   -9.6895    5.7676
   19.8609  -19.3151    3.3139
    3.6974  -13.2200    1.3147
   12.1604   -7.6181    3.3379
   10.9340   -9.8401    2.9592
   11.4494  -17.4830    7.0735
    9.9735  -12.2117    5.6658
   11.2663  -10.6753    6.6378
    8.8690   -9.6340    3.6208
    2.3794  -17.5545   11.3501
    7.3719   -8.8510    5.3273
   11.0550   -3.1193    2.2405
   11.1645  -17.1673    1.0292
   12.7165   -8.0254    5.2960
   19.9943   -3.9536    3.7801
    2.5564   -8.2884    0.9443
   13.0618   -7.3492    3.5906
   10.6112  -12.1377    0.1160
    9.8291  -10.8334    7.0473
    6.8809  -15.1512   10.8311
    9.4261  -10.5468    7.2207
   13.0616  -12.4868    4.0305
   11.9180  -12.9611    9.0789
    2.7745   -3.4874    5.8731
   14.0779  -10.5268         0
   11.1228   -7.1653    4.5661
   18.5240   -8.3111    5.2361
    4.9943  -14.5670    6.6867
    6.7508  -18.5044    4.5072
    2.1152  -16.4519    8.5211
   10.0163   -8.7583    1.0148
   14.4781  -11.3554   12.3776
    7.8446   -6.5822    9.0566
    7.6640  -11.7098    4.2597
    8.6740  -15.9504    5.8641
    9.2775   -9.5665    2.3820
   14.6058   -5.0453    2.2077
   10.0715   -8.8056    5.2285
    7.8280  -10.8368    7.9570
   12.8560  -11.8942    7.7775
    3.8600   -4.2935   11.3945
   12.6938   -5.8856    4.0225
    9.0708  -11.9334    4.3310
   19.6271  -16.0588         0
    7.0803  -14.1110    4.0744
   11.9062   -8.5000    5.4383
   10.5304  -14.9166    5.1132
    5.1365  -11.7413    3.0571
   13.9399  -10.5510    1.1378
   -0.0183  -12.9690    3.7670
    1.2425  -12.8101   11.6016
    4.1068  -11.0184    2.2129
   15.8753  -12.4788    5.0080
   14.4279  -16.0402    1.5271
    4.3688   -6.6853    8.4936
    9.1911  -14.1380    7.3593
    6.6547   -5.3423    5.4810
   11.0496  -11.5453    4.8574
   19.4561  -11.3855    9.4366
    6.0550   -4.1699    6.7333
   18.7695   -8.8251    4.9894
    7.9063  -11.8102    5.4100
    7.0664  -13.7213    9.6170
   12.7433  -12.3275    6.4845
   13.1911   -8.2004    5.8066
   11.2591   -6.1879    6.7057
    3.3964   -9.7840    4.7042
    6.8891  -12.2182    2.0383
    6.0941   -8.4905    6.1028
    7.6937   -6.9795    0.1331
    6.4806  -11.8975    2.9176
   11.9161   -3.5059    8.1738
   14.5519  -11.6393    2.9163
    8.8720   -5.9577    5.8103
   12.4941   -5.6425    4.3542
   13.4150   -9.7452    5.8324
   10.6023  -10.3810    6.2708
    8.7735   -6.0760    3.4972
    7.5582  -18.1164         0
    4.7660   -9.8482    8.0635
    8.7692   -9.6889    3.3262
   10.7178   -8.3549    5.8544
    9.1598  -13.9819    7.9087
   10.9806  -16.3458    1.7528
   10.2081  -21.8727    8.7685
   13.0165   -7.5470    7.2235
    7.1627   -5.1490    5.3671
    9.4672  -11.9995    3.9236
   11.0893    0.7070    8.6156
    8.3076  -12.8844    6.3374
   11.2620  -15.9008    6.5970
    2.0150  -10.6556   13.0787
   12.0636   -9.5240    6.6639
   12.0782   -6.9294    8.5296
    9.9947   -9.4553    4.8479
    8.4118  -13.4363   10.4068
    8.0515  -16.8536    4.7147
    2.3285  -12.6401    2.0150
   14.9307  -16.1368    4.9501
   12.8610   -6.7438         0
    5.1077  -10.4663    8.7728
    3.3523  -18.3385    1.4475
    8.2664   -8.3548    5.8449
   13.0638  -14.1508    7.7430
   13.7469   -3.9233    6.4482
   12.4057   -9.7651    6.1207
   13.4561   -8.9685    2.4066
   17.8970  -13.5432    4.8348
    2.3306   -7.6464    7.7912
   12.1128   -9.7079    2.7093
    9.7556   -9.0272    1.2929
    6.6301  -11.4412    2.9040
   13.2254   -7.1048    7.5633
    9.9752  -20.9764    4.1763
   15.4005   -9.2544    5.6686
    5.3469   -5.2831         0
    6.1859  -10.8580    2.6821
   11.9504   -7.3984    2.9016
    6.0061  -12.6797    1.2022
   10.5455   -9.2226    8.5219
    8.1914  -12.6279    8.1197
   14.9351   -4.8474    0.2984
   11.9650   -7.8853    5.7496
    8.1685   -3.8083    2.1033
    7.1259  -10.1879    4.5028
    8.1780  -10.2669    5.1370
   20.7724   -8.5901   10.1287
    9.7767   -3.4822    6.1113
    9.0884  -20.7557    3.0306
    9.1111  -17.5445    7.4941
   16.8234   -4.2996    7.6280
    2.2051   -1.4791    5.4149
   15.0061  -10.9215   11.7267
    6.7632   -3.9078    4.4997
    8.7699   -0.2341    3.6229
   13.0483   -9.1464    6.6386
    5.7860  -12.0499    1.0931
   11.9157  -12.1474    3.7654
    9.6646  -11.1526    3.3798
    3.7054   -6.4060    9.0994
   10.8654  -10.7679    7.1205
   12.6118   -0.8321    6.8227
   12.8704  -11.5286    7.7594
    7.4531  -13.2214    7.6982
    9.9274   -7.5497    5.0982
   12.8005   -8.9411    0.7524
   12.4005   -7.9186         0
    8.2480  -19.4224    5.1133
    4.2775  -10.6750    9.9904
   11.2267  -18.2509    7.4930
   11.4286   -9.1660    8.1430
   16.7427   -6.5575   10.3815
    3.0079   -4.6919    3.5446
    8.4057   -6.6116    3.0991
   11.9540   -7.8217    8.3057
    9.5433   -6.5105    2.8489
   19.1295  -10.2550   11.6001
    8.3475  -10.1733    7.6719
   -0.6370   -5.4080    3.0937
   13.2844   -5.1072    3.8795
    3.7044  -12.1187    6.5656
   15.9170  -18.0878    7.1387
   11.8172  -20.3290    8.5052
    8.4513  -17.3016    6.0199
    5.5897  -14.5003    1.9558
   18.3581   -7.9880    5.2794
   11.3929  -13.4913    0.3914
    7.7990  -10.3840    6.7287
    6.8730   -8.3377    6.7162
    9.1882  -16.2379    5.4400
   15.6533  -13.8261    2.2228
   18.5983  -13.3722    8.8194
   10.1224  -13.6081    7.9638
   11.9221  -11.9766    2.8644
   11.4551   -6.4577    0.9971
    2.5796  -12.2836    8.0127
   10.6315   -6.8756    6.8255
    7.7588   -8.4685    5.1078
    8.0750   -9.1366    5.7661
    9.3211   -5.6124    7.0915
   -3.0086   -0.3693    3.7065
    6.6946   -3.3970    9.6617
   13.4030  -17.1282    6.0400
   10.5436   -7.6154    2.7005
    7.6784  -15.6108    3.5196
    8.4661  -19.0486    9.5136
    5.1400  -15.4482    3.0504
    6.8617  -19.8186    1.8185
    7.3765  -15.0907    8.4642
    9.1624   -3.9057    5.9578
   12.6458  -12.1442   11.6106
    9.9053    2.0632    4.1963
    9.6411   -8.2413    6.9142
    6.2402   -5.4820    4.9419
   14.4038  -10.6570    6.2968
   11.0597  -11.2581    0.2308
   12.5472  -13.5252    5.7490
   10.9868   -9.2763    7.2893
   13.6347  -16.6732    4.9828
   16.8064  -13.8253    3.9209
    8.0576  -14.8115    5.0777
   12.4415   -9.2425         0
   13.0568   -3.1784    8.7256
    9.9605   -0.2911    6.0264
   18.6037  -17.9007    6.6518
    5.5962   -8.4396    6.9641
    7.8124  -12.9435    5.8604
   10.3505  -14.8667    9.2551
